[Main]
Experiment = "Rvst"
Header length = 80    
Date = "20191024 16:13:12"
Comments = ""

[System]
System = "PPMS"
Magnet stability range (G) = 5.000000E+1
Magnet check interval (s) = 1.000000E+0
Magnet approach mode = "Linear Approach"
Magnet mode = "Persistent"
Temperature stability time (s) = 1.000000E+0
Temperature approach mode = "Fast Settle"

[Static Gate Voltage]
Set initial gate voltage = TRUE
Initial gate voltage (V) = 7.500000E+1
Initial gate volt. ramp step (V) = 1.000000E-1
Initial voltage ramp delay (s) = 2.000000E-1
Delay after inital voltage set = 1.000000
Leak current threshold for initial set = 1.000000
Set final gate voltage = TRUE
Final gate voltage (V) = 0.000000E+0
Finish wait time (s) = 0.000000E+0
Finish gate ramp step (V) = 1.000000E-1
Finish voltage ramp delay (s) = 2.000000
Gate voltage source type = "Keithley 2400"
GPIB = "GPIB0::16::INSTR"
Gate leak limit (A) = 5.000000E-6
Auto-range = TRUE
Manual range (V) = 5.000000
Check Compliance = TRUE
Measuement speed = 1.000000
Number of measurements = 1

[Static Temperature]
Set initial temperature = TRUE
Initial temperature (K) = 3.000000E+2
Delay after setting initial temperature (s) = 0.000000E+0
Initial temperature stabilization (K) = 1.000000E+0
Initial temperature ramp rate (K/min) = 5.000000E+0
Wait for initial temperature to stabilize = TRUE
Set final temperature = FALSE

[Time Sweep ]
Interval = 1.000000E+2
Duration = 3.600000E+3

[Measure Voltage Configuration1]
Voltage meter = "Keithley 2182A"
Auto-range = "Manual"
GPIB = "GPIB0::7::INSTR"
Range (V) = 1.000000E+0
Speed = 1.000000

[Measure Voltage Configuration2]
Voltage meter = "Keithley 2182A"
Auto-range = "Automatic"
GPIB = "GPIB0::8::INSTR"
Range (V) = 1.000000E+0
Speed = 1.000000

[Dynamic Voltage]
Voltage source = "Keithley 6430"
GPIB = "GPIB0::9::INSTR"
Initial Voltage (V) = 100.000000E-3
Final Voltage (V) = 100.000000E-3
Voltage step (V) = 1.000000E-12
Number of measurement sequences = 1.000000E+0
Samples/sequence = 30.000000E+0
Pre-measuement delay (s) = 1.000000E+0
Current limit (A) = 1.000000E-3
Auto-range = 0
Manual range (V) = 10.000000E+0
Measurement Type = "Subtract bias"
Pattern = "Linear"
Check compliance = 0
Measurement Speed = 1.000000
Time (s)	Voltage 1 (V)	Current (A)	STD_Current (A)	Resistance 1 (Ohms)	STD_Resistance 1 (Ohms)	Voltage 2 (V)	Voltage 3 (V)	STD_Voltage 2 (V)	STD_Voltage 3 (V)	Resistance 2 (Ohms)	Resistance 3 (Ohms)	STD_Resistance 2 (Ohms)	STD_Resistance 3 (Ohms)	Gate Voltage (V)	Gate Leak Current (A)	Temperature (K)
0.000000000E+0	100.000001490E-3	2.023025865E-9	768.226497488E-12	49.430906068E+6	18.770957159E+6	34.995187922E-3	48.364474098E-3	3.804466428E-3	7.500807767E-3	17.298438212E+6	23.906997406E+6	1.880582198E+6	3.707717186E+6	75.000000000E+0	171.282724115E-12	300.001700000E+0
80.385777473E+0	100.000001490E-3	1.749682335E-9	462.444442896E-12	57.153232612E+6	15.105710498E+6	28.567406250E-3	23.227176760E-3	5.864585455E-3	10.279325582E-3	16.327195902E+6	13.275082165E+6	3.351800117E+6	5.874966773E+6	75.000000000E+0	141.011438637E-12	299.998300000E+0
180.385372162E+0	100.000001490E-3	1.858120002E-9	690.603540648E-12	53.817838118E+6	20.002362338E+6	28.655402683E-3	20.307633010E-3	6.713279236E-3	12.125086533E-3	15.421717998E+6	10.929128896E+6	3.612941698E+6	6.525459345E+6	75.000000000E+0	131.004582182E-12	299.999300000E+0
280.385114193E+0	100.000001490E-3	1.301445636E-9	369.365756404E-12	76.837632474E+6	21.807434323E+6	28.116268905E-3	20.061138920E-3	7.538735716E-3	14.265057496E-3	21.603875044E+6	15.414503964E+6	5.792585956E+6	10.960932288E+6	75.000000000E+0	138.698288965E-12	300.000500000E+0
380.386020660E+0	100.000001490E-3	1.361424040E-9	595.004046932E-12	73.452501628E+6	32.102074337E+6	29.247520020E-3	19.041358423E-3	8.346522575E-3	16.684126159E-3	21.483034799E+6	13.986353897E+6	6.130729539E+6	12.254907856E+6	75.000000000E+0	135.077712904E-12	299.998300000E+0
480.385911942E+0	100.000001490E-3	1.170003116E-9	302.923804817E-12	85.469859092E+6	22.128876882E+6	27.951620785E-3	14.631236820E-3	8.610679492E-3	17.287620325E-3	23.890210543E+6	12.505297307E+6	7.359535519E+6	14.775704512E+6	75.000000000E+0	176.059722357E-12	299.999400000E+0
580.385691166E+0	100.000001490E-3	879.356095333E-12	255.849701446E-12	113.719575063E+6	33.086845571E+6	21.130534834E-3	12.669260297E-3	9.752349611E-3	26.590207446E-3	24.029554063E+6	14.407428758E+6	11.090330371E+6	30.238270465E+6	75.000000000E+0	88.011209431E-12	299.999800000E+0
680.385643005E+0	100.000001490E-3	870.482500000E-12	395.010308529E-12	114.878818920E+6	52.130074648E+6	19.634933755E-3	11.189742947E-3	11.802158176E-3	27.710925040E-3	22.556379657E+6	12.854644346E+6	13.558179717E+6	31.833982923E+6	75.000000000E+0	101.286284915E-12	299.999100000E+0
780.385019779E+0	100.000001490E-3	893.031042000E-12	117.452500706E-12	111.978192008E+6	14.727504485E+6	21.342122840E-3	8.176484470E-3	11.890256987E-3	33.165028800E-3	23.898522936E+6	9.155879343E+6	13.314494601E+6	37.137599076E+6	75.000000000E+0	63.723748500E-12	299.995700000E+0
880.385577679E+0	100.000001490E-3	882.492326667E-12	365.923757776E-12	113.315434558E+6	46.986028518E+6	17.779911631E-3	-3.491034787E-3	12.427664013E-3	40.831216916E-3	20.147383829E+6	-3.955881180E+6	14.082461272E+6	46.268070195E+6	75.000000000E+0	85.245629999E-12	300.000300000E+0
980.385167122E+0	100.000001490E-3	806.473699667E-12	50.968202568E-12	123.996605880E+6	7.836441695E+6	17.911378680E-3	365.897916667E-6	13.487885839E-3	38.271458075E-3	22.209501299E+6	453.700990891E+3	16.724520397E+6	47.455308326E+6	75.000000000E+0	142.419173677E-12	299.991500000E+0
