[Main]
Experiment = "IvsV"
Header length = 32    
Date = "20190903 10:43:02"
Comments = "SD: 1Vb to 2V-, BG: 2Va to 2V-"

[System]
System = "PPMS"
Magnet stability range (G) = 5.000000E+1
Magnet check interval (s) = 1.000000E+0
Magnet approach mode = "Linear Approach"
Magnet mode = "Persistent"
Temperature stability time (s) = 1.000000E+0
Temperature approach mode = "Fast Settle"

[Dynamic Voltage]
Voltage source = "Keithley 6430"
GPIB = "GPIB0::9::INSTR"
Initial Voltage (V) = 1.000000E+0
Final Voltage (V) = -1.000000E+0
Voltage step (V) = 100.000000E-3
Number of measurement sequences = 1.000000E+0
Samples/sequence = 30.000000E+0
Pre-measuement delay (s) = 1.000000E+0
Current limit (A) = 100.000000E-6
Auto-range = TRUE
Manual range (V) = 10.000000E+0
Measurement Type = "Static"
Pattern = "Linear"
Check compliance = TRUE
Measurement Speed = 1.000000
Time (s)	Voltage 1 (V)	Current (A)	STD_Current (A)	Resistance 1 (Ohms)	STD_Resistance 1 (Ohms)	di/dv (A/V)	Voltage 2 (V)	STD_Voltage 2 (V)	Resistance 2 (Ohms)	STD_Resistance 2 (Ohms)
0.000000000E+0	1.000000000E+0	18.476277000E-9	236.045407542E-12	54.123457881E+6	691.459306061E+3	18.476277000E-9	301.918050567E-3	3.970840437E-3	16.340848893E+6	214.915615135E+3
4.803563118E+0	899.999976158E-3	18.771674333E-9	104.365745691E-12	47.944576503E+6	266.559678679E+3	-2.953972629E-9	275.151189700E-3	3.319013123E-3	14.657786238E+6	176.809647579E+3
9.511067390E+0	800.000011921E-3	17.912738000E-9	123.624371311E-12	44.660956461E+6	308.226618660E+3	8.589366405E-9	241.474669833E-3	2.674974098E-3	13.480611944E+6	149.333624928E+3
14.212227345E+0	699.999988079E-3	16.630470667E-9	88.863882696E-12	42.091411729E+6	224.912833159E+3	12.822670276E-9	206.550145833E-3	3.117906324E-3	12.419981970E+6	187.481544355E+3
18.905795097E+0	600.000023842E-3	15.050360667E-9	111.102677671E-12	39.866155844E+6	294.294386746E+3	15.801105651E-9	174.107118133E-3	2.501668285E-3	11.568302049E+6	166.219822898E+3
23.599783421E+0	500.000000000E-3	13.226495333E-9	96.264396567E-12	37.802909040E+6	275.135183998E+3	18.238648985E-9	139.742621500E-3	2.205552563E-3	10.565355219E+6	166.752605850E+3
28.301063061E+0	400.000005960E-3	11.023692667E-9	95.005487534E-12	36.285482375E+6	312.719162958E+3	22.028027980E-9	106.324893500E-3	2.215002914E-3	9.645124979E+6	200.931119980E+3
32.993598461E+0	300.000011921E-3	8.750106267E-9	119.634623763E-12	34.285299261E+6	468.761035892E+3	22.735865355E-9	75.280189667E-3	1.793361770E-3	8.603345762E+6	204.953141708E+3
37.777221680E+0	200.000002980E-3	6.087451433E-9	107.044915985E-12	32.854472051E+6	577.730145198E+3	26.626545953E-9	42.565564613E-3	1.657071069E-3	6.992345660E+6	272.210971577E+3
42.487494469E+0	100.000001490E-3	3.147239700E-9	114.235258114E-12	31.773875212E+6	1.153295326E+6	29.402116895E-9	11.776234347E-3	1.523747585E-3	3.741765950E+6	484.153649098E+3
47.181687355E+0	138.777878078E-18	25.923512000E-12	3.907190327E-12	5.353359455E-6	806.858047714E-9	31.213161415E-9	-22.027632257E-3	1.921271701E-3	-849.716360062E+6	74.113094754E+6
57.187625885E+0	-100.000001490E-3	-3.477717633E-9	131.036782745E-12	28.754491317E+6	1.083439321E+6	35.036410931E-9	-48.513720610E-3	1.104393584E-3	13.949873372E+6	317.562752583E+3
62.168355942E+0	-200.000002980E-3	-7.181480267E-9	91.800679101E-12	27.849412037E+6	355.998323829E+3	37.037625781E-9	-77.494622003E-3	1.121342405E-3	10.790898133E+6	156.143631053E+3
66.917831898E+0	-300.000011921E-3	-11.237067333E-9	125.910142259E-12	26.697358218E+6	299.141054466E+3	40.555867041E-9	-107.016168967E-3	1.104186391E-3	9.523496282E+6	98.262861483E+3
71.756074429E+0	-400.000005960E-3	-15.635599000E-9	87.473519514E-12	25.582646751E+6	143.122380525E+3	43.985319288E-9	-135.720845000E-3	1.181359765E-3	8.680245957E+6	75.555772764E+3
76.451875210E+0	-500.000000000E-3	-20.423655333E-9	180.461178455E-12	24.481415880E+6	216.315105587E+3	47.880566187E-9	-163.216444033E-3	1.759339997E-3	7.991539290E+6	86.142268261E+3
81.146751404E+0	-600.000023842E-3	-25.462313667E-9	192.840525153E-12	23.564238179E+6	178.465324277E+3	50.386571320E-9	-188.735542000E-3	1.626719480E-3	7.412348480E+6	63.887339597E+3
85.836787224E+0	-699.999988079E-3	-30.830448333E-9	169.866402537E-12	22.704826751E+6	125.096696578E+3	53.681365865E-9	-216.665406933E-3	1.364634826E-3	7.027643730E+6	44.262568330E+3
90.536459446E+0	-800.000011921E-3	-36.473134667E-9	234.199749797E-12	21.933952736E+6	140.841369678E+3	56.426849880E-9	-242.452115600E-3	1.140908047E-3	6.647416456E+6	31.280778508E+3
95.233184814E+0	-899.999976158E-3	-42.377548667E-9	322.558345674E-12	21.237660140E+6	161.651269041E+3	59.044161116E-9	-267.349286067E-3	1.290624315E-3	6.308748252E+6	30.455379214E+3
99.929688931E+0	-1.000000000E+0	-48.675772000E-9	242.202218923E-12	20.544101489E+6	102.223894185E+3	62.982218317E-9	-290.190113367E-3	1.644839296E-3	5.961695140E+6	33.791745432E+3
