[Main]
Experiment = "IvsV"
Header length = 32    
Date = "20190903 10:40:47"
Comments = "SD: 1Vb to 2V-, BG: 2Va to 2V-"

[System]
System = "PPMS"
Magnet stability range (G) = 5.000000E+1
Magnet check interval (s) = 1.000000E+0
Magnet approach mode = "Linear Approach"
Magnet mode = "Persistent"
Temperature stability time (s) = 1.000000E+0
Temperature approach mode = "Fast Settle"

[Dynamic Voltage]
Voltage source = "Keithley 6430"
GPIB = "GPIB0::9::INSTR"
Initial Voltage (V) = -1.000000E+0
Final Voltage (V) = 1.000000E+0
Voltage step (V) = 100.000000E-3
Number of measurement sequences = 1.000000E+0
Samples/sequence = 30.000000E+0
Pre-measuement delay (s) = 1.000000E+0
Current limit (A) = 100.000000E-6
Auto-range = TRUE
Manual range (V) = 10.000000E+0
Measurement Type = "Static"
Pattern = "Linear"
Check compliance = TRUE
Measurement Speed = 1.000000
Time (s)	Voltage 1 (V)	Current (A)	STD_Current (A)	Resistance 1 (Ohms)	STD_Resistance 1 (Ohms)	di/dv (A/V)	Voltage 2 (V)	STD_Voltage 2 (V)	Resistance 2 (Ohms)	STD_Resistance 2 (Ohms)
0.000000000E+0	-1.000000000E+0	-55.982798333E-9	1.069447295E-9	17.862629768E+6	341.232336666E+3	55.982798333E-9	-285.541119600E-3	1.672612932E-3	5.100515303E+6	29.877265554E+3
4.857864857E+0	-899.999976158E-3	-43.106647667E-9	179.965029183E-12	20.878449726E+6	87.164996992E+3	128.761475968E-9	-262.907979967E-3	1.432374740E-3	6.099012431E+6	33.228627539E+3
9.562715530E+0	-800.000011921E-3	-34.998599667E-9	159.854755098E-12	22.858057738E+6	104.403297746E+3	81.080508997E-9	-239.477143833E-3	1.831926941E-3	6.842477874E+6	52.342863954E+3
14.263991356E+0	-699.999988079E-3	-28.256916667E-9	138.214374080E-12	24.772695349E+6	121.171839882E+3	67.416813927E-9	-212.985055633E-3	1.409290178E-3	7.537448553E+6	49.874166915E+3
18.998089790E+0	-600.000023842E-3	-22.630783667E-9	134.336643279E-12	26.512560620E+6	157.378924693E+3	56.261350121E-9	-191.020451833E-3	1.707128844E-3	8.440735179E+6	75.433925261E+3
23.698346615E+0	-500.000000000E-3	-17.816380667E-9	133.941919398E-12	28.064061346E+6	210.983044938E+3	48.144018522E-9	-165.118562467E-3	1.531561231E-3	9.267794933E+6	85.963656682E+3
28.404561043E+0	-400.000005960E-3	-13.484400333E-9	88.789360907E-12	29.663907632E+6	195.324918834E+3	43.319805915E-9	-139.723486800E-3	1.723138254E-3	10.361861362E+6	127.787533082E+3
33.100541115E+0	-300.000011921E-3	-9.600304467E-9	159.551237518E-12	31.249010171E+6	519.339596078E+3	38.840960982E-9	-110.865566367E-3	1.788162756E-3	11.548130244E+6	186.261046395E+3
37.865971565E+0	-200.000002980E-3	-6.018589067E-9	94.998260009E-12	33.230380205E+6	524.513015244E+3	35.817150798E-9	-82.678918933E-3	1.826246040E-3	13.737259351E+6	303.434246711E+3
42.636425495E+0	-100.000001490E-3	-2.853617600E-9	82.566120408E-12	35.043238271E+6	1.013935515E+6	31.649714195E-9	-53.638530210E-3	1.737540520E-3	18.796677666E+6	608.890455557E+3
47.335245132E+0	-138.777878078E-18	36.956009000E-12	1.011190105E-12	-3.755218213E-6	102.750259116E-9	28.905735659E-9	-25.860237840E-3	2.555087779E-3	-699.757320657E+6	69.138628560E+6
57.669249535E+0	100.000001490E-3	2.714389433E-9	81.910201411E-12	36.840698045E+6	1.111715570E+6	26.774333844E-9	9.612686945E-3	2.057698929E-3	3.541380919E+6	758.070637755E+3
62.679170609E+0	200.000002980E-3	5.228091267E-9	71.138373247E-12	38.254879798E+6	520.532213151E+3	25.137017959E-9	40.970829857E-3	2.069574010E-3	7.836670740E+6	395.856518966E+3
67.381073952E+0	300.000011921E-3	7.515774100E-9	89.462507863E-12	39.916049622E+6	475.132681694E+3	22.876826288E-9	74.338308963E-3	2.699057138E-3	9.890971705E+6	359.118981288E+3
72.102599144E+0	400.000005960E-3	9.650554800E-9	115.633634946E-12	41.448394859E+6	496.637619245E+3	21.347808272E-9	105.516430533E-3	2.702428608E-3	10.933716529E+6	280.028315927E+3
77.315148354E+0	500.000000000E-3	11.665111000E-9	119.716586767E-12	42.862858313E+6	439.892521927E+3	20.145563201E-9	138.251977133E-3	2.727523664E-3	11.851749815E+6	233.818920708E+3
82.142865658E+0	600.000023842E-3	13.551537667E-9	95.357880953E-12	44.275420148E+6	311.552116628E+3	18.864262169E-9	171.231250033E-3	2.571486604E-3	12.635558727E+6	189.756075471E+3
86.850398540E+0	699.999988079E-3	15.338001000E-9	93.271371309E-12	45.638280248E+6	277.529319688E+3	17.864639722E-9	204.712778567E-3	3.039537191E-3	13.346770454E+6	198.170360740E+3
91.548496246E+0	800.000011921E-3	16.904400000E-9	114.419350275E-12	47.324957521E+6	320.324346995E+3	15.663986265E-9	236.120107067E-3	2.925663383E-3	13.967967338E+6	173.071116587E+3
96.242599487E+0	899.999976158E-3	18.616812000E-9	174.428447190E-12	48.343399297E+6	452.948876064E+3	17.124126124E-9	265.094350733E-3	2.661587753E-3	14.239513765E+6	142.966892105E+3
100.946363449E+0	1.000000000E+0	20.217631333E-9	129.894087034E-12	49.461778361E+6	317.781664795E+3	16.008189517E-9	303.996654867E-3	3.382262074E-3	15.036215166E+6	167.292697049E+3
