[Main]
Experiment = "RvsB_400.0K"
Header length = 74    
Date = "20201213 19:10:38"
Comments = "DS: 2I- to 2I+; Volt1: 2Vb to 2Va; Volt2: 1I+ to 1I-"

[System]
System = "PPMS"
Magnet stability range (G) = 5.000000E+1
Magnet check interval (s) = 1.000000E+0
Magnet approach mode = "Linear Approach"
Magnet mode = "Persistent"
Temperature stability time (s) = 1.000000E+0
Temperature approach mode = "Fast Settle"

[Static Temperature]
Set initial temperature = TRUE
Initial temperature (K) = 4.000000E+2
Delay after setting initial temperature (s) = 1.000000E+1
Initial temperature stabilization (K) = 2.000000E-1
Initial temperature ramp rate (K/min) = 1.000000E+1
Wait for initial temperature to stabilize = TRUE
Set final temperature = FALSE

[Dynamic magnetic field]
Initial field (T) = -9.000000E+0
Final field (T) = 9.000000E+0
Measurement interval (T) = 5.000000E-1
Ramp rate (G/s) = 1.000000E+2
Delay after field step (s) = 1.000000E+0
Measurement Pattern = "Linear"
Go to other field at finish = TRUE
Finish field (T) = 0.000000
Finish ramp rate (G/s) = 100.000000
Delay before setting finish field (s) = 0.000000
Stabilize finish field = TRUE

[Measure Voltage Configuration1]
Voltage meter = "Keithley 2182A"
Auto-range = "Manual"
GPIB = "GPIB0::7::INSTR"
Range (V) = 1.000000E+0
Speed = 1.000000

[Measure Voltage Configuration2]
Voltage meter = "Keithley 2182A"
Auto-range = "Manual"
GPIB = "GPIB0::8::INSTR"
Range (V) = 1.000000E+0
Speed = 1.000000

[Measure Voltage Configuration3]
Voltage meter = "Keithley 6430"
Auto-range = "Automatic"
GPIB = "GPIB0::9::INSTR"
Range (V) = 1.000000E+1
Speed = 1.000000

[Dynamic Current]
Operating mode = "Linear"
Current source = "Keithley 6430"
GPIB = "GPIB0::9::INSTR"
Initial current (A) = 1.000000E-7
Final current (A) = 1.000000E-7
Current step (A) = 1.000000E-12
Number of measurement sequences = 1.000000E+0
Samples/sequence = 3.000000E+1
Pre-measuement delay (s) = 6.000000E+1
Output limit (V) = 10.000000
Auto-range = 0
Manual range (A) = 0.000001
Check output compliance = "Abort"
Inital delay (s) = 0.000000
Time (s)	Magnetic Field (T)	Current (A)	Voltage 1 (V)	Voltage 2 (V)	Voltage 3 (V)	STD_Voltage 1 (V)	STD_Voltage 2 (V)	STD_Voltage 3 (V)	Resistance 1 (Ohms)	Resistance 2 (Ohms)	Resistance 3 (Ohms)	STD_Resistance 1 (Ohms)	STD_Resistance 2 (Ohms)	STD_Resistance 3 (Ohms)	Temperature (K)
807.073528767E+0	-8.999976563E+0	99.999999921E-9	55.990383344E-9	28.382933315E-9	1.122638833E+0	182.338857452E-9	132.995888100E-9	863.729608605E-6	559.903833881E-3	283.829333371E-3	11.226388342E+6	1.823388576E+0	1.329958882E+0	8.637296093E+3	399.999300000E+0
1.064862320E+3	-8.499964844E+0	99.999999921E-9	86.530873688E-9	76.025875734E-9	1.076962933E+0	207.052164831E-9	125.376761751E-9	2.680509554E-3	865.308737559E-3	760.258757938E-3	10.769629342E+6	2.070521650E+0	1.253767618E+0	26.805095565E+3	399.994600000E+0
1.319557651E+3	-7.999956250E+0	99.999999921E-9	142.522057715E-9	63.861649561E-9	1.030223267E+0	206.253326977E-9	154.375841713E-9	850.661124905E-6	1.425220578E+0	638.616496110E-3	10.302232675E+6	2.062533271E+0	1.543758418E+0	8.506611256E+3	399.999400000E+0
1.574344659E+3	-7.499973437E+0	99.999999921E-9	9.161568303E-9	35.478716939E-9	982.129776667E-3	188.718404014E-9	165.283190346E-9	891.663109440E-6	91.615683105E-3	354.787169672E-3	9.821297774E+6	1.887184042E+0	1.652831905E+0	8.916631101E+3	399.985300000E+0
1.826044644E+3	-6.999969531E+0	99.999999921E-9	-11.198169381E-9	61.834547150E-9	933.565028333E-3	198.075848579E-9	115.270156615E-9	748.266092576E-6	-111.981693898E-3	618.345471989E-3	9.335650291E+6	1.980758487E+0	1.152701567E+0	7.482660932E+3	400.011500000E+0
2.077757661E+3	-6.499980469E+0	99.999999921E-9	-17.306218292E-9	50.683871179E-9	885.093253333E-3	181.253807887E-9	117.190850405E-9	774.834115699E-6	-173.062183056E-3	506.838712185E-3	8.850932540E+6	1.812538080E+0	1.171908505E+0	7.748341163E+3	400.001900000E+0
2.326494834E+3	-5.999972656E+0	99.999999921E-9	-21.377837193E-9	52.711390301E-9	834.195358333E-3	223.659271657E-9	122.512327435E-9	738.394673094E-6	-213.778372096E-3	527.113903424E-3	8.341953590E+6	2.236592718E+0	1.225123275E+0	7.383946737E+3	400.005800000E+0
2.572200747E+3	-5.499981250E+0	99.999999921E-9	9.161832815E-9	1.013787515E-9	783.325331667E-3	177.041077611E-9	149.393097931E-9	777.450207069E-6	91.618328219E-3	10.137875158E-3	7.833253323E+6	1.770410777E+0	1.493930980E+0	7.774502077E+3	400.002200000E+0
2.817848018E+3	-4.999969922E+0	99.999999921E-9	-64.134236294E-9	75.012276237E-9	732.109380000E-3	226.517071377E-9	143.157984470E-9	531.873628431E-6	-641.342363440E-3	750.122762956E-3	7.321093806E+6	2.265170716E+0	1.431579846E+0	5.318736288E+3	399.998400000E+0
3.060537179E+3	-4.499984766E+0	99.999999921E-9	-69.225523813E-9	-61.834430239E-9	680.695908333E-3	181.596577276E-9	133.076028354E-9	785.023417214E-6	-692.255238675E-3	-618.344302875E-3	6.806959089E+6	1.815965774E+0	1.330760285E+0	7.850234178E+3	400.011200000E+0
3.303233926E+3	-3.999993359E+0	99.999999921E-9	443.153333337E-15	-86.162781335E-9	630.438325000E-3	198.324539335E-9	153.436718866E-9	678.821207962E-6	4.431533337E-6	-861.627814030E-3	6.304383255E+6	1.983245395E+0	1.534367190E+0	6.788212085E+3	399.994900000E+0
3.542915240E+3	-3.500001953E+0	99.999999921E-9	-104.854451145E-9	29.396608155E-9	580.924346667E-3	201.552440168E-9	125.241015316E-9	496.849085277E-6	-1.048544512E+0	293.966081779E-3	5.809243471E+6	2.015524403E+0	1.252410154E+0	4.968490857E+3	399.994000000E+0
3.779560984E+3	-3.000009180E+0	99.999999921E-9	-16.287493189E-9	-16.218794151E-9	532.153131667E-3	243.971752964E-9	148.837151931E-9	463.890025822E-6	-162.874932020E-3	-162.187941639E-3	5.321531321E+6	2.439717532E+0	1.488371520E+0	4.638900262E+3	400.011600000E+0
4.013397281E+3	-2.499987109E+0	99.999999921E-9	-281.989928727E-9	113.531855418E-9	486.359565000E-3	159.346469776E-9	139.182305250E-9	543.810515058E-6	-2.819899289E+0	1.135318555E+0	4.863595654E+6	1.593464699E+0	1.391823054E+0	5.438105155E+3	400.002600000E+0
4.244118665E+3	-1.999991211E+0	99.999999921E-9	28.504543017E-9	-43.588181364E-9	444.707278333E-3	154.384615630E-9	133.331268110E-9	458.011813141E-6	285.045430390E-3	-435.881813979E-3	4.447072787E+6	1.543846158E+0	1.333312682E+0	4.580118135E+3	399.990200000E+0
4.471845172E+3	-1.499998633E+0	99.999999921E-9	-145.575721080E-9	-69.943500522E-9	408.024633333E-3	208.948606801E-9	128.193602256E-9	408.621525811E-6	-1.455757212E+0	-699.435005772E-3	4.080246337E+6	2.089486070E+0	1.281936024E+0	4.086215261E+3	399.997000000E+0
4.696453441E+3	-1.000019043E+0	99.999999921E-9	-122.161852408E-9	40.547284032E-9	379.235753333E-3	187.201304955E-9	160.784373021E-9	373.386355020E-6	-1.221618525E+0	405.472840642E-3	3.792357536E+6	1.872013051E+0	1.607843731E+0	3.733863553E+3	399.995500000E+0
4.918233580E+3	-500.020947266E-3	99.999999921E-9	-5.090701740E-9	-106.436241546E-9	360.181836667E-3	205.054026396E-9	143.410233129E-9	441.070641330E-6	-50.907017437E-3	-1.064362416E+0	3.601818369E+6	2.050540266E+0	1.434102332E+0	4.410706417E+3	400.001000000E+0
5.133826709E+3	-13.059979677E-6	99.999999921E-9	-21.379211762E-9	72.984902908E-9	353.593710000E-3	199.585627253E-9	137.398957735E-9	369.992408931E-6	-213.792117788E-3	729.849029650E-3	3.535937103E+6	1.995856274E+0	1.373989578E+0	3.699924092E+3	400.000200000E+0
5.340448957E+3	499.986132812E-3	99.999999921E-9	-72.277775855E-9	73.998559560E-9	360.206805000E-3	180.400188206E-9	122.355972749E-9	296.191088386E-6	-722.777759121E-3	739.985596181E-3	3.602068053E+6	1.804001883E+0	1.223559728E+0	2.961910886E+3	399.996300000E+0
5.556052205E+3	999.991796875E-3	99.999999921E-9	154.738151232E-9	46.629050862E-9	379.917465000E-3	186.604836975E-9	132.836163244E-9	310.157827917E-6	1.547381514E+0	466.290508989E-3	3.799174653E+6	1.866048371E+0	1.328361633E+0	3.101578282E+3	400.000800000E+0
5.777660386E+3	1.499988770E+0	99.999999921E-9	-3.052817793E-9	10.136669540E-9	409.480060000E-3	206.180424142E-9	151.554709852E-9	388.085249404E-6	-30.528177957E-3	101.366695476E-3	4.094800603E+6	2.061804243E+0	1.515547100E+0	3.880852497E+3	400.006000000E+0
6.002444505E+3	1.999976953E+0	99.999999921E-9	-17.306051200E-9	-11.150333775E-9	446.415055000E-3	247.471023565E-9	159.949121390E-9	431.977215568E-6	-173.060512136E-3	-111.503337839E-3	4.464150554E+6	2.474710238E+0	1.599491215E+0	4.319772159E+3	399.998200000E+0
6.230087391E+3	2.499989453E+0	99.999999921E-9	-19.342678258E-9	-41.560838668E-9	489.703220000E-3	178.247949642E-9	130.168773782E-9	487.661226366E-6	-193.426782735E-3	-415.608387010E-3	4.897032204E+6	1.782479498E+0	1.301687739E+0	4.876612267E+3	399.998100000E+0
6.460784941E+3	3.000014648E+0	99.999999921E-9	-24.431611804E-9	-36.492360509E-9	537.093495000E-3	188.570954965E-9	133.219639247E-9	627.036616660E-6	-244.316118235E-3	-364.923605371E-3	5.370934954E+6	1.885709551E+0	1.332196394E+0	6.270366172E+3	399.994800000E+0
6.694480510E+3	3.500011719E+0	99.999999921E-9	131.323358594E-9	-34.465117906E-9	585.992351667E-3	184.722260241E-9	135.842869497E-9	610.285313764E-6	1.313233587E+0	-344.651179327E-3	5.859923521E+6	1.847222604E+0	1.358428696E+0	6.102853142E+3	399.996600000E+0
6.931165905E+3	4.000014063E+0	99.999999921E-9	12.215760487E-9	-78.053114990E-9	637.499076667E-3	207.765516057E-9	137.414304060E-9	582.506183520E-6	122.157604968E-3	-780.531150513E-3	6.374990772E+6	2.077655162E+0	1.374143042E+0	5.825061840E+3	399.997500000E+0
7.170899326E+3	4.500018359E+0	99.999999921E-9	-24.432927078E-9	79.066743085E-9	690.000378333E-3	161.657464708E-9	114.176775901E-9	590.823101878E-6	-244.329270972E-3	790.667431471E-3	6.900003789E+6	1.616574648E+0	1.141767760E+0	5.908231023E+3	399.987500000E+0
7.410642088E+3	5.000019922E+0	99.999999921E-9	49.881898247E-9	153.065708485E-9	743.563736667E-3	212.489702683E-9	135.608059350E-9	586.712289436E-6	498.818982863E-3	1.530657086E+0	7.435637373E+6	2.124897028E+0	1.356080595E+0	5.867122899E+3	400.005400000E+0
7.653378773E+3	5.500041797E+0	99.999999921E-9	82.458054031E-9	-69.944122364E-9	797.639056667E-3	168.043758518E-9	153.824185077E-9	856.432552585E-6	824.580540957E-3	-699.441224189E-3	7.976390573E+6	1.680437586E+0	1.538241852E+0	8.564325533E+3	400.001200000E+0
7.899024492E+3	6.000037109E+0	99.999999921E-9	4.072346144E-9	88.190164187E-9	851.669765000E-3	213.506480530E-9	136.669939853E-9	587.503249832E-6	40.723461474E-3	881.901642564E-3	8.516697657E+6	2.135064807E+0	1.366699400E+0	5.875032503E+3	399.995800000E+0
8.144884018E+3	6.500050391E+0	99.999999921E-9	68.207875449E-9	6.081970044E-9	904.645765000E-3	194.757492620E-9	100.002403683E-9	704.796087613E-6	682.078755024E-3	60.819700486E-3	9.046457657E+6	1.947574928E+0	1.000024038E+0	7.047960882E+3	399.999000000E+0
8.393587560E+3	7.000024219E+0	99.999999921E-9	59.043719940E-9	33.451416379E-9	957.742903333E-3	206.627090451E-9	125.105004979E-9	737.519723843E-6	590.437199863E-3	334.514164049E-3	9.577429041E+6	2.066270906E+0	1.251050051E+0	7.375197244E+3	400.004900000E+0
8.645427957E+3	7.500035156E+0	99.999999921E-9	88.567127758E-9	-16.219032979E-9	1.009516333E+0	196.728977101E-9	116.535816870E-9	690.622334706E-6	885.671278270E-3	-162.190329917E-3	10.095163341E+6	1.967289773E+0	1.165358170E+0	6.906223352E+3	400.004100000E+0
8.897072705E+3	8.000042188E+0	99.999999921E-9	36.648103996E-9	-56.765759184E-9	1.061058617E+0	197.349096089E-9	137.615375266E-9	803.702067089E-6	366.481040244E-3	-567.657592287E-3	10.610586175E+6	1.973490962E+0	1.376153754E+0	8.037020677E+3	400.001300000E+0
9.151743868E+3	8.500041406E+0	99.999999921E-9	-54.972870611E-9	13.177894668E-9	1.111163483E+0	216.696677141E-9	122.355966924E-9	943.444755005E-6	-549.728706545E-3	131.778946787E-3	11.111634842E+6	2.166966773E+0	1.223559670E+0	9.434447557E+3	400.000100000E+0
9.406402802E+3	9.000018750E+0	99.999999921E-9	19.341965862E-9	-86.162681263E-9	1.161139317E+0	207.590015066E-9	133.713317777E-9	848.446754607E-6	193.419658775E-3	-861.626813305E-3	11.611393176E+6	2.075900152E+0	1.337133179E+0	8.484467553E+3	400.000500000E+0
