[Main]
Experiment = "RvsB_300.0K"
Header length = 74    
Date = "20201214 00:03:34"
Comments = "DS: 2I- to 2I+; Volt1: 2Vb to 2Va; Volt2: 1I+ to 1I-"

[System]
System = "PPMS"
Magnet stability range (G) = 5.000000E+1
Magnet check interval (s) = 1.000000E+0
Magnet approach mode = "Linear Approach"
Magnet mode = "Persistent"
Temperature stability time (s) = 1.000000E+0
Temperature approach mode = "Fast Settle"

[Static Temperature]
Set initial temperature = TRUE
Initial temperature (K) = 3.000000E+2
Delay after setting initial temperature (s) = 1.000000E+1
Initial temperature stabilization (K) = 2.000000E-1
Initial temperature ramp rate (K/min) = 1.000000E+1
Wait for initial temperature to stabilize = TRUE
Set final temperature = FALSE

[Dynamic magnetic field]
Initial field (T) = -9.000000E+0
Final field (T) = 9.000000E+0
Measurement interval (T) = 1.000000E+0
Ramp rate (G/s) = 1.000000E+2
Delay after field step (s) = 1.000000E+0
Measurement Pattern = "Linear"
Go to other field at finish = TRUE
Finish field (T) = 0.000000
Finish ramp rate (G/s) = 100.000000
Delay before setting finish field (s) = 0.000000
Stabilize finish field = TRUE

[Measure Voltage Configuration1]
Voltage meter = "Keithley 2182A"
Auto-range = "Manual"
GPIB = "GPIB0::7::INSTR"
Range (V) = 1.000000E+0
Speed = 1.000000

[Measure Voltage Configuration2]
Voltage meter = "Keithley 2182A"
Auto-range = "Manual"
GPIB = "GPIB0::8::INSTR"
Range (V) = 1.000000E+0
Speed = 1.000000

[Measure Voltage Configuration3]
Voltage meter = "Keithley 6430"
Auto-range = "Automatic"
GPIB = "GPIB0::9::INSTR"
Range (V) = 1.000000E+1
Speed = 1.000000

[Dynamic Current]
Operating mode = "Linear"
Current source = "Keithley 6430"
GPIB = "GPIB0::9::INSTR"
Initial current (A) = 9.999999E-10
Final current (A) = 9.999999E-10
Current step (A) = 1.000000E-12
Number of measurement sequences = 1.000000E+0
Samples/sequence = 3.000000E+1
Pre-measuement delay (s) = 6.000000E+1
Output limit (V) = 10.000000
Auto-range = 0
Manual range (A) = 0.000001
Check output compliance = "Skip data"
Inital delay (s) = 0.000000
Time (s)	Magnetic Field (T)	Current (A)	Voltage 1 (V)	Voltage 2 (V)	Voltage 3 (V)	STD_Voltage 1 (V)	STD_Voltage 2 (V)	STD_Voltage 3 (V)	Resistance 1 (Ohms)	Resistance 2 (Ohms)	Resistance 3 (Ohms)	STD_Resistance 1 (Ohms)	STD_Resistance 2 (Ohms)	STD_Resistance 3 (Ohms)	Temperature (K)
349.932456017E+0	-8.999977344E+0	999.999897146E-12	55.990203044E-9	37.506091470E-9	7.985012500E+0	187.807357896E-9	116.151943335E-9	22.094358279E-3	55.990208802E+0	37.506095327E+0	7.985013321E+9	187.807377213E+0	116.151955282E+0	22.094360551E+6	299.984800000E+0
675.616356850E+0	-7.999956250E+0	999.999897146E-12	65.153705840E-9	-104.409017428E-9	7.664777050E+0	187.978693325E-9	115.270245138E-9	20.913660324E-3	65.153712541E+0	-104.409028167E+0	7.664777838E+9	187.978712660E+0	115.270256994E+0	20.913662475E+6	300.004900000E+0
998.191622257E+0	-6.999975000E+0	999.999897146E-12	91.621156753E-9	53.724749092E-9	7.255138083E+0	172.663258533E-9	142.935049208E-9	22.741768487E-3	91.621166177E+0	53.724754617E+0	7.255138830E+9	172.663276293E+0	142.935063909E+0	22.741770826E+6	300.015800000E+0
1.320825683E+3	-5.999984766E+0	999.999897146E-12	-130.305457335E-9	-32.437805926E-9	6.816023183E+0	186.144556652E-9	136.623202887E-9	19.700905325E-3	-130.305470738E+0	-32.437809263E+0	6.816023884E+9	186.144575797E+0	136.623216939E+0	19.700907351E+6	300.009100000E+0
1.640425036E+3	-4.999987500E+0	999.999897146E-12	-138.449868995E-9	3.041077680E-9	6.320811467E+0	171.691759147E-9	112.658524161E-9	22.566201920E-3	-138.449883235E+0	3.041077993E+0	6.320812117E+9	171.691776806E+0	112.658535748E+0	22.566204241E+6	299.993000000E+0
1.957135298E+3	-4.000012891E+0	999.999897146E-12	-61.080125669E-9	36.492485926E-9	5.816359967E+0	157.872839918E-9	130.152141355E-9	30.980950192E-3	-61.080131951E+0	36.492489679E+0	5.816360565E+9	157.872856156E+0	130.152154741E+0	30.980953379E+6	299.991900000E+0
2.264811655E+3	-3.000006055E+0	999.999897146E-12	77.368762310E-9	10.136786130E-9	5.233437250E+0	180.531147597E-9	145.105050468E-9	40.014657526E-3	77.368770267E+0	10.136787172E+0	5.233437788E+9	180.531166165E+0	145.105065393E+0	40.014661642E+6	300.003600000E+0
2.572430608E+3	-1.999998828E+0	999.999897146E-12	36.647958183E-9	-61.834519862E-9	4.611714217E+0	194.062256461E-9	130.820245623E-9	23.737326468E-3	36.647961953E+0	-61.834526222E+0	4.611714691E+9	194.062276421E+0	130.820259078E+0	23.737328909E+6	299.998200000E+0
2.874031835E+3	-1.000020117E+0	999.999897146E-12	-24.432775496E-9	-34.465252180E-9	4.011588733E+0	175.764711501E-9	127.345086132E-9	12.397434943E-3	-24.432778010E+0	-34.465255725E+0	4.011589146E+9	175.764729579E+0	127.345099230E+0	12.397436218E+6	300.010300000E+0
3.163566788E+3	-20.678301156E-6	999.999897146E-12	-141.504040999E-9	31.423971132E-9	3.722942850E+0	221.385080562E-9	133.713411013E-9	10.722680086E-3	-141.504055553E+0	31.423974364E+0	3.722943233E+9	221.385103332E+0	133.713424766E+0	10.722681189E+6	299.998700000E+0
3.438112707E+3	999.978710938E-3	999.999897146E-12	-92.639566185E-9	2.027342232E-9	4.021969083E+0	179.781120395E-9	121.291476397E-9	13.738740951E-3	-92.639575714E+0	2.027342441E+0	4.021969497E+9	179.781138886E+0	121.291488872E+0	13.738742364E+6	299.997000000E+0
3.727643096E+3	1.999980273E+0	999.999897146E-12	66.170921907E-9	41.560907268E-9	4.627694583E+0	195.986414243E-9	135.168251262E-9	27.276102572E-3	66.170928713E+0	41.560911543E+0	4.627695059E+9	195.986434401E+0	135.168265164E+0	27.276105378E+6	299.999900000E+0
