[Main]
Experiment = "RvsVg_4.0K"
Header length = 77    
Date = "20191106 09:35:01"
Comments = "SD: 2V- to 1Vb; Volt1: 2Va to 2I+; Volt2: 2Vb to 2I-; Gate: 1I+ to 1Vb"

[System]
System = "PPMS"
Magnet stability range (G) = 5.000000E+1
Magnet check interval (s) = 1.000000E+0
Magnet approach mode = "Linear Approach"
Magnet mode = "Persistent"
Temperature stability time (s) = 1.000000E+0
Temperature approach mode = "Fast Settle"

[Static Temperature]
Set initial temperature = TRUE
Initial temperature (K) = 4.000000E+0
Delay after setting initial temperature (s) = 1.000000E+1
Initial temperature stabilization (K) = 2.000000E-1
Initial temperature ramp rate (K/min) = 1.000000E+1
Wait for initial temperature to stabilize = TRUE
Set final temperature = FALSE

[Dynamic Gate Voltage]
Pattern = "Linear"
Cycles = 1
Initial gate voltage (V) = -7.500000E+1
Final gate voltage (V) = 7.500000E+1
Measurement interval (V) = 5.000000E+0
Ramp step (V) = 1.000000E-1
Ramp delay (s) = 0.100000
Pre-measurement Delay = 1.000000E+0
Leak current measurement threshold = 1.000000
Check compliance = TRUE
Gate voltage source type = "Keithley 2400"
GPIB = "GPIB0::16::INSTR"
Gate leak limit (A) = 1.000000E-6
Autorange = TRUE
Number of current measurements = 30
Speed = 1.000000
Set finish gate voltage = TRUE
Finish gate voltage (V) = 0.000000E+0
Finish gate ramp step (V) = 1.000000E-1
Finish gate ramp delay (s) = 1.000000E-1

[Measure Voltage Configuration1]
Voltage meter = "Keithley 2182A"
Auto-range = "Manual"
GPIB = "GPIB0::7::INSTR"
Range (V) = 1.000000E+0
Speed = 1.000000

[Measure Voltage Configuration2]
Voltage meter = "Keithley 2182A"
Auto-range = "Manual"
GPIB = "GPIB0::8::INSTR"
Range (V) = 1.000000E+0
Speed = 1.000000

[Dynamic Voltage]
Voltage source = "Keithley 6430"
GPIB = "GPIB0::9::INSTR"
Initial Voltage (V) = 1.000000E+0
Final Voltage (V) = 1.000000E+0
Voltage step (V) = 1.000000E-12
Number of measurement sequences = 1.000000E+0
Samples/sequence = 100.000000E+0
Pre-measuement delay (s) = 1.000000E+0
Current limit (A) = 100.000000E-6
Auto-range = 0
Manual range (V) = 10.000000E+0
Measurement Type = "Subtract bias"
Pattern = "Linear"
Check compliance = 0
Measurement Speed = 1.000000
Time (s)	Gate Voltage (V)	Gate Leak Current (A)	Voltage 1 (V)	Current (A)	STD_Current (A)	Resistance 1 (Ohms)	STD_Resistance 1 (Ohms)	Voltage 2 (V)	Voltage 3 (V)	STD_Voltage 2 (V)	STD_Voltage 3 (V)	Resistance 2 (Ohms)	Resistance 3 (Ohms)	STD_Resistance 2 (Ohms)	STD_Resistance 3 (Ohms)	Temperature (K)
2.583911419E+0	-75.000000000E+0	-226.566259272E-12	1.000000000E+0	5.036387300E-12	2.458479461E-12	198.555023757E+9	96.923333868E+9	0.000000000E+0	0.000000000E+0	26.848317788E+21	26.848317788E+21	0.000000000E+0	0.000000000E+0	NaN	NaN	4.015000000E+0
67.463460922E+0	-70.000000000E+0	-176.594561196E-12	1.000000000E+0	95.996112500E-12	262.020107231E-12	10.417088504E+9	28.433303973E+9	0.000000000E+0	0.000000000E+0	26.848317788E+21	26.848317788E+21	0.000000000E+0	0.000000000E+0	NaN	NaN	4.002400000E+0
144.892604351E+0	-65.000000000E+0	-230.153323251E-12	1.000000000E+0	105.317549000E-12	487.166578204E-12	9.495093738E+9	43.921382238E+9	0.000000000E+0	0.000000000E+0	26.848317788E+21	26.848317788E+21	0.000000000E+0	0.000000000E+0	NaN	NaN	4.000200000E+0
205.149565697E+0	-60.000000000E+0	-140.255690858E-12	1.000000000E+0	289.780790300E-12	331.153324130E-12	3.450884370E+9	3.943573448E+9	NaN	341.866481396E-3	NaN	235.695517719E-3	NaN	1.179741697E+9	NaN	813.357978198E+6	3.998100000E+0
281.828310490E+0	-55.000000000E+0	-123.359306682E-12	1.000000000E+0	18.291713000E-9	1.089463321E-9	54.669565392E+6	3.256145897E+6	876.166090110E-3	446.358576410E-3	55.081427679E-3	22.099290629E-3	47.899619357E+6	24.402229381E+6	3.011277712E+6	1.208158614E+6	4.000200000E+0
345.616257191E+0	-50.000000000E+0	-110.851372641E-12	1.000000000E+0	333.375906090E-9	10.313078918E-9	2.999616894E+6	92.794005772E+3	554.010747225E-3	281.182541419E-3	8.471165234E-3	4.876249848E-3	1.661819997E+6	843.439901571E+3	25.410250349E+3	14.626881425E+3	4.000000000E+0
409.317367554E+0	-45.000000000E+0	-97.669511599E-12	1.000000000E+0	1.466013740E-6	22.191766938E-9	682.121846899E+3	10.325611988E+3	428.467386499E-3	286.716645429E-3	1.834385184E-3	3.097090851E-3	292.266965015E+3	195.575687717E+3	1.251274210E+3	2.112593332E+3	3.999800000E+0
473.216391563E+0	-40.000000000E+0	-81.408463188E-12	1.000000000E+0	2.683724144E-6	18.368128252E-9	372.616538150E+3	2.550287583E+3	405.945713968E-3	291.217248699E-3	897.439692380E-6	730.013404345E-6	151.262086616E+3	108.512363060E+3	334.400871373E+0	272.015067530E+0	4.000400000E+0
540.297750473E+0	-35.000000000E+0	-72.452418370E-12	1.000000000E+0	3.309069994E-6	12.705438517E-9	302.199712242E+3	1.160319930E+3	388.326235521E-3	301.933689620E-3	312.438443659E-6	319.702286095E-6	117.352076630E+3	91.244274119E+3	94.418807767E+0	96.613938861E+0	3.997500000E+0
604.253475189E+0	-30.000000000E+0	-55.698588190E-12	1.000000000E+0	3.548231899E-6	11.257961434E-9	281.830508387E+3	894.202263108E+0	385.304714897E-3	309.161592186E-3	292.273173222E-6	240.375611354E-6	108.590623683E+3	87.131168700E+3	82.371496997E+0	67.745180752E+0	3.999400000E+0
668.225692272E+0	-25.000000000E+0	-46.118979353E-12	1.000000000E+0	3.678647253E-6	13.150398958E-9	271.839056903E+3	971.768099685E+0	388.663978662E-3	316.846749327E-3	305.689865062E-6	291.541711166E-6	105.654049411E+3	86.131321520E+3	83.098444623E+0	79.252423811E+0	3.998500000E+0
732.207335472E+0	-20.000000000E+0	-33.594387775E-12	1.000000000E+0	3.859054795E-6	14.275686703E-9	259.130811301E+3	958.594908140E+0	387.231796892E-3	326.563264684E-3	334.692056190E-6	185.785104062E-6	100.343689690E+3	84.622603719E+3	86.729024057E+0	48.142644743E+0	3.999500000E+0
796.193032265E+0	-15.000000000E+0	-23.572573552E-12	1.000000000E+0	4.202583602E-6	24.309134000E-9	237.948865430E+3	1.376374964E+3	380.828734595E-3	341.144689114E-3	555.092955522E-6	213.309397490E-6	90.617765320E+3	81.174991722E+3	132.083738975E+0	50.756729118E+0	3.999500000E+0
860.142481804E+0	-10.000000000E+0	-11.676718273E-12	1.000000000E+0	5.055594304E-6	44.402468563E-9	197.800681760E+3	1.737251454E+3	371.809800833E-3	359.253199287E-3	210.641070566E-6	165.152829544E-6	73.544232090E+3	71.060527744E+3	41.664947365E+0	32.667342278E+0	4.002700000E+0
924.085929871E+0	-5.000000000E+0	1.908291436E-12	1.000000000E+0	6.867502610E-6	83.308560230E-9	145.613341102E+3	1.766411822E+3	360.208964444E-3	366.701526352E-3	290.611992660E-6	163.896729255E-6	52.451230808E+3	53.396634439E+3	42.316983216E+0	23.865550343E+0	3.999800000E+0
987.995567322E+0	0.000000000E+0	12.722823749E-12	1.000000000E+0	9.821505902E-6	128.850030239E-9	101.817380142E+3	1.335759775E+3	351.547916876E-3	357.353772585E-3	308.337442945E-6	186.225990073E-6	35.793687891E+3	36.384824909E+3	31.394110640E+0	18.961042424E+0	4.000200000E+0
1.051937886E+3	5.000000000E+0	22.757847343E-12	1.000000000E+0	13.851700905E-6	171.839338997E-9	72.193300074E+3	895.604738327E+0	343.433439742E-3	343.641460746E-3	107.837909975E-6	192.726765831E-6	24.793593371E+3	24.808611094E+3	7.785174594E+0	13.913581238E+0	3.999900000E+0
1.115860407E+3	10.000000000E+0	30.526686098E-12	1.000000000E+0	18.685163518E-6	193.444499285E-9	53.518397044E+3	554.067375892E+0	334.197558251E-3	330.945427556E-3	161.806670507E-6	184.851697516E-6	17.885717614E+3	17.711668792E+3	8.659633637E+0	9.892966542E+0	3.998700000E+0
1.179754272E+3	15.000000000E+0	42.013204143E-12	1.000000000E+0	24.082509177E-6	215.152284129E-9	41.523912340E+3	370.973162314E+0	327.869355719E-3	321.590798461E-3	127.787191548E-6	181.234196323E-6	13.614418386E+3	13.353708125E+3	5.306224140E+0	7.525552881E+0	4.002700000E+0
1.243433268E+3	20.000000000E+0	53.977427736E-12	1.000000000E+0	29.757700877E-6	224.052500689E-9	33.604746688E+3	253.017783924E+0	323.218187095E-3	315.834577269E-3	180.320160843E-6	92.564686002E-6	10.861665302E+3	10.613540965E+3	6.059613328E+0	3.110612825E+0	3.999600000E+0
1.307321712E+3	25.000000000E+0	63.360432757E-12	1.000000000E+0	35.608466377E-6	238.318795432E-9	28.083208903E+3	187.954079426E+0	320.835643870E-3	313.477157750E-3	204.044351969E-6	137.264837017E-6	9.010094410E+3	8.803444508E+3	5.730220162E+0	3.854837093E+0	3.999600000E+0
1.371036601E+3	30.000000000E+0	77.072815722E-12	1.000000000E+0	41.419104911E-6	255.980075146E-9	24.143447864E+3	149.212340820E+0	318.272642846E-3	308.950775289E-3	178.546930881E-6	94.161274029E-6	7.684198959E+3	7.459136936E+3	4.310738517E+0	2.273377810E+0	3.999000000E+0
1.434982268E+3	35.000000000E+0	84.751144066E-12	1.000000000E+0	47.129869389E-6	262.997763733E-9	21.217966716E+3	118.402148564E+0	316.291515261E-3	305.634353303E-3	138.588508281E-6	116.281235240E-6	6.711062843E+3	6.484939536E+3	2.940566356E+0	2.467251379E+0	3.998000000E+0
1.498890285E+3	40.000000000E+0	100.634097352E-12	1.000000000E+0	52.642862863E-6	266.656515195E-9	18.995927380E+3	96.221738759E+0	314.559537252E-3	302.965618249E-3	126.682209954E-6	123.193868904E-6	5.975350126E+3	5.755112883E+3	2.406446061E+0	2.340181787E+0	3.997600000E+0
1.562552429E+3	45.000000000E+0	116.991506297E-12	1.000000000E+0	58.009351117E-6	275.809323633E-9	17.238599997E+3	81.962071875E+0	312.863970299E-3	301.583681190E-3	214.135052775E-6	135.257386020E-6	5.393336838E+3	5.198880446E+3	3.691388520E+0	2.331647974E+0	3.999900000E+0
1.626184971E+3	50.000000000E+0	133.073937980E-12	1.000000000E+0	63.142569804E-6	272.475472394E-9	15.837176141E+3	68.341248446E+0	310.934319464E-3	299.759198857E-3	128.891377832E-6	111.373829833E-6	4.924321586E+3	4.747339232E+3	2.041275454E+0	1.763846961E+0	3.998300000E+0
1.690194324E+3	55.000000000E+0	151.452714721E-12	1.000000000E+0	68.082155908E-6	285.998333090E-9	14.688136512E+3	61.701667677E+0	309.599049413E-3	298.078903661E-3	157.381038415E-6	96.101178670E-6	4.547433102E+3	4.378223628E+3	2.311634177E+0	1.411547231E+0	4.001900000E+0
1.753860005E+3	60.000000000E+0	175.034124694E-12	1.000000000E+0	72.756867931E-6	292.920547827E-9	13.744406933E+3	55.335246318E+0	309.238981700E-3	297.606849383E-3	109.604086345E-6	89.074913409E-6	4.250306404E+3	4.090429644E+3	1.506443164E+0	1.224281857E+0	4.002500000E+0
1.817778292E+3	65.000000000E+0	208.777976851E-12	1.000000000E+0	77.248884755E-6	296.940545369E-9	12.945170706E+3	49.760537793E+0	307.686577131E-3	296.383545577E-3	138.381000202E-6	104.386363883E-6	3.983055265E+3	3.836735592E+3	1.791365670E+0	1.351299300E+0	4.008700000E+0
1.881412949E+3	70.000000000E+0	249.146183314E-12	1.000000000E+0	81.418010290E-6	295.285704628E-9	12.282294746E+3	44.545255350E+0	307.091238100E-3	295.622406412E-3	202.293569382E-6	78.515361486E-6	3.771785100E+3	3.630921529E+3	2.484629244E+0	964.348811854E-3	3.999100000E+0
1.945357502E+3	75.000000000E+0	305.215963614E-12	1.000000000E+0	85.368589842E-6	298.609748252E-9	11.713910255E+3	40.973943681E+0	305.840088558E-3	294.801123642E-3	203.482920717E-6	87.886271362E-6	3.582583350E+3	3.453273905E+3	2.383580672E+0	1.029491895E+0	3.999200000E+0
