[Main]
Experiment = "RvsVg_4.0K"
Header length = 77    
Date = "20191106 03:46:21"
Comments = "SD: 2V- to 1Vb; Volt1: 2Va to 2I+; Volt2: 2Vb to 2I-; Gate: 1I+ to 1Vb"

[System]
System = "PPMS"
Magnet stability range (G) = 5.000000E+1
Magnet check interval (s) = 1.000000E+0
Magnet approach mode = "Linear Approach"
Magnet mode = "Persistent"
Temperature stability time (s) = 1.000000E+0
Temperature approach mode = "Fast Settle"

[Static Temperature]
Set initial temperature = TRUE
Initial temperature (K) = 4.000000E+0
Delay after setting initial temperature (s) = 1.000000E+1
Initial temperature stabilization (K) = 2.000000E-1
Initial temperature ramp rate (K/min) = 1.000000E+1
Wait for initial temperature to stabilize = TRUE
Set final temperature = FALSE

[Dynamic Gate Voltage]
Pattern = "Linear"
Cycles = 1
Initial gate voltage (V) = -7.500000E+1
Final gate voltage (V) = 7.500000E+1
Measurement interval (V) = 5.000000E+0
Ramp step (V) = 1.000000E-1
Ramp delay (s) = 0.100000
Pre-measurement Delay = 1.000000E+0
Leak current measurement threshold = 1.000000
Check compliance = TRUE
Gate voltage source type = "Keithley 2400"
GPIB = "GPIB0::16::INSTR"
Gate leak limit (A) = 1.000000E-6
Autorange = TRUE
Number of current measurements = 30
Speed = 1.000000
Set finish gate voltage = TRUE
Finish gate voltage (V) = 0.000000E+0
Finish gate ramp step (V) = 1.000000E-1
Finish gate ramp delay (s) = 1.000000E-1

[Measure Voltage Configuration1]
Voltage meter = "Keithley 2182A"
Auto-range = "Manual"
GPIB = "GPIB0::7::INSTR"
Range (V) = 1.000000E+0
Speed = 1.000000

[Measure Voltage Configuration2]
Voltage meter = "Keithley 2182A"
Auto-range = "Manual"
GPIB = "GPIB0::8::INSTR"
Range (V) = 1.000000E+0
Speed = 1.000000

[Dynamic Voltage]
Voltage source = "Keithley 6430"
GPIB = "GPIB0::9::INSTR"
Initial Voltage (V) = 1.000000E+0
Final Voltage (V) = 1.000000E+0
Voltage step (V) = 1.000000E-12
Number of measurement sequences = 1.000000E+0
Samples/sequence = 100.000000E+0
Pre-measuement delay (s) = 1.000000E+0
Current limit (A) = 100.000000E-6
Auto-range = 0
Manual range (V) = 10.000000E+0
Measurement Type = "Subtract bias"
Pattern = "Linear"
Check compliance = 0
Measurement Speed = 1.000000
Time (s)	Gate Voltage (V)	Gate Leak Current (A)	Voltage 1 (V)	Current (A)	STD_Current (A)	Resistance 1 (Ohms)	STD_Resistance 1 (Ohms)	Voltage 2 (V)	Voltage 3 (V)	STD_Voltage 2 (V)	STD_Voltage 3 (V)	Resistance 2 (Ohms)	Resistance 3 (Ohms)	STD_Resistance 2 (Ohms)	STD_Resistance 3 (Ohms)	Temperature (K)
193.102540970E+0	-75.000000000E+0	-622.569782764E-12	1.000000000E+0	40.705867100E-12	28.997719152E-12	24.566483194E+9	17.500474280E+9	0.000000000E+0	0.000000000E+0	26.848317788E+21	26.848317788E+21	0.000000000E+0	0.000000000E+0	NaN	NaN	3.999600000E+0
278.548679352E+0	-70.000000000E+0	-373.865396974E-12	1.000000000E+0	23.128893100E-12	4.908494234E-12	43.235964457E+9	9.175686934E+9	0.000000000E+0	0.000000000E+0	26.848317788E+21	26.848317788E+21	0.000000000E+0	0.000000000E+0	NaN	NaN	3.999700000E+0
348.808956146E+0	-65.000000000E+0	-291.953855998E-12	1.000000000E+0	20.457304400E-12	3.541723735E-12	48.882295558E+9	8.462873847E+9	0.000000000E+0	0.000000000E+0	26.848317788E+21	26.848317788E+21	0.000000000E+0	0.000000000E+0	NaN	NaN	4.002800000E+0
414.748503208E+0	-60.000000000E+0	-238.911768147E-12	1.000000000E+0	20.166080100E-12	5.596977520E-12	49.588219180E+9	13.762920044E+9	0.000000000E+0	0.000000000E+0	26.848317788E+21	26.848317788E+21	0.000000000E+0	0.000000000E+0	NaN	NaN	4.004000000E+0
480.409824848E+0	-55.000000000E+0	-216.753946504E-12	1.000000000E+0	6.435345200E-12	4.511495255E-12	155.391819541E+9	108.937350641E+9	0.000000000E+0	0.000000000E+0	26.848317788E+21	26.848317788E+21	0.000000000E+0	0.000000000E+0	NaN	NaN	4.001100000E+0
546.495428085E+0	-50.000000000E+0	-179.064284234E-12	1.000000000E+0	15.638324200E-12	19.449724275E-12	63.945470577E+9	79.530373935E+9	0.000000000E+0	0.000000000E+0	26.848317788E+21	26.848317788E+21	0.000000000E+0	0.000000000E+0	NaN	NaN	3.999800000E+0
617.960131168E+0	-45.000000000E+0	-152.392331855E-12	1.000000000E+0	122.497392500E-12	132.296828191E-12	8.163439071E+9	8.816490491E+9	0.000000000E+0	0.000000000E+0	26.848317788E+21	26.848317788E+21	0.000000000E+0	0.000000000E+0	NaN	NaN	3.999000000E+0
695.854492664E+0	-40.000000000E+0	-140.114083993E-12	1.000000000E+0	102.225255100E-12	307.138896751E-12	9.782318460E+9	29.391274166E+9	0.000000000E+0	NaN	26.848317788E+21	NaN	0.000000000E+0	NaN	NaN	NaN	3.999900000E+0
770.484799862E+0	-35.000000000E+0	-114.853630946E-12	1.000000000E+0	197.058949770E-12	253.027587928E-12	5.074623615E+9	6.515917061E+9	0.000000000E+0	1.006044444E+0	26.848317788E+21	173.470430033E-3	0.000000000E+0	5.105296894E+9	NaN	880.297140704E+6	3.999500000E+0
841.233342171E+0	-30.000000000E+0	-99.928535701E-12	1.000000000E+0	1.304596700E-9	185.220529686E-12	766.520411922E+6	108.826978249E+6	0.000000000E+0	1.055421182E+0	26.848317788E+21	72.408712298E-3	0.000000000E+0	809.001879247E+6	NaN	55.502755978E+6	3.999400000E+0
897.613761425E+0	-25.000000000E+0	-83.803473189E-12	1.000000000E+0	5.619635571E-9	489.018049620E-12	177.947482064E+6	15.484906363E+6	0.000000000E+0	938.018823930E-3	26.848317788E+21	45.757548355E-3	0.000000000E+0	166.918087847E+6	NaN	8.142440515E+6	3.999900000E+0
954.347163200E+0	-20.000000000E+0	-61.199779446E-12	1.000000000E+0	17.417862988E-9	691.781717858E-12	57.412324388E+6	2.280233598E+6	0.000000000E+0	879.421753855E-3	26.848317788E+21	44.033515242E-3	0.000000000E+0	50.489647006E+6	NaN	2.528066461E+6	4.001100000E+0
1.010024395E+3	-15.000000000E+0	-42.676115795E-12	1.000000000E+0	37.193319036E-9	1.101995127E-9	26.886549142E+6	796.617427428E+3	803.284850699E-3	794.069395083E-3	131.048260187E-3	34.748389044E-3	21.597557613E+6	21.349785813E+6	3.523435487E+6	934.264269619E+3	4.001400000E+0
1.073528017E+3	-10.000000000E+0	-26.365385020E-12	1.000000000E+0	59.669441141E-9	1.350382138E-9	16.758997250E+6	379.273713707E+3	871.145899290E-3	713.113515286E-3	77.398835105E-3	17.296291505E-3	14.599531731E+6	11.951067442E+6	1.297126865E+6	289.868501760E+3	3.999800000E+0
1.136997354E+3	-5.000000000E+0	-9.114158820E-12	1.000000000E+0	88.337934997E-9	2.993505193E-9	11.320165001E+6	383.606122564E+3	963.701860480E-3	645.330992052E-3	36.382624026E-3	17.635015244E-3	10.909264072E+6	7.305253310E+6	411.857307141E+3	199.631282357E+3	4.000600000E+0
1.205378809E+3	0.000000000E+0	8.471882050E-12	1.000000000E+0	151.648664326E-9	4.162210350E-9	6.594189302E+6	180.986776820E+3	934.688425960E-3	634.406460988E-3	29.282011433E-3	15.130020153E-3	6.163512419E+6	4.183396298E+6	193.091126539E+3	99.770217036E+3	3.998600000E+0
1.269001434E+3	5.000000000E+0	9.412176333E-12	1.000000000E+0	220.627390201E-9	3.111438428E-9	4.532528799E+6	63.920822656E+3	888.974076780E-3	638.365546391E-3	26.247223775E-3	13.769355514E-3	4.029300605E+6	2.893410224E+6	118.966297660E+3	62.410000415E+3	4.000700000E+0
1.332666869E+3	10.000000000E+0	24.889495210E-12	1.000000000E+0	280.648157340E-9	3.959885684E-9	3.563180352E+6	50.275715321E+3	858.458184310E-3	649.544310822E-3	24.430947618E-3	13.482103892E-3	3.058841335E+6	2.314443526E+6	87.051872530E+3	48.039167688E+3	4.000600000E+0
1.396310433E+3	15.000000000E+0	37.896136403E-12	1.000000000E+0	347.636832978E-9	3.990578676E-9	2.876565154E+6	33.020550401E+3	836.775027240E-3	657.128240452E-3	22.952348703E-3	12.521365908E-3	2.407037885E+6	1.890272198E+6	66.023926483E+3	36.018524853E+3	3.999300000E+0
1.460218595E+3	20.000000000E+0	55.478671078E-12	1.000000000E+0	408.009161477E-9	3.575587110E-9	2.450925358E+6	21.478677303E+3	808.175774150E-3	650.485131992E-3	20.643799353E-3	11.827653271E-3	1.980778498E+6	1.594290505E+6	50.596411311E+3	28.988695324E+3	4.000000000E+0
1.523857329E+3	25.000000000E+0	65.169982721E-12	1.000000000E+0	471.509479320E-9	3.587889514E-9	2.120848135E+6	16.138315598E+3	791.501736330E-3	631.199369895E-3	21.111230154E-3	9.726727420E-3	1.678654982E+6	1.338678007E+6	44.773713106E+3	20.628911711E+3	3.998600000E+0
1.587528866E+3	30.000000000E+0	72.501337225E-12	1.000000000E+0	534.072897598E-9	4.259148117E-9	1.872403570E+6	14.932126633E+3	772.980033200E-3	618.942379402E-3	20.091441550E-3	8.138824010E-3	1.447330574E+6	1.158909921E+6	37.619286881E+3	15.239163129E+3	4.001100000E+0
1.651459198E+3	35.000000000E+0	89.934675679E-12	1.000000000E+0	587.632023201E-9	4.607491212E-9	1.701745243E+6	13.343003687E+3	754.700463084E-3	614.254096096E-3	20.452334742E-3	7.582471142E-3	1.284307923E+6	1.045303986E+6	34.804663352E+3	12.903434195E+3	4.001300000E+0
1.715135046E+3	40.000000000E+0	101.377468688E-12	1.000000000E+0	645.553422931E-9	3.653587029E-9	1.549058474E+6	8.767082237E+3	743.739956493E-3	602.553300364E-3	20.331042280E-3	5.954429381E-3	1.152096682E+6	933.390295769E+3	31.493973322E+3	9.223759288E+3	3.998500000E+0
1.779074717E+3	45.000000000E+0	110.638081335E-12	1.000000000E+0	694.374560206E-9	4.432170205E-9	1.440144927E+6	9.192398167E+3	733.467408123E-3	594.464778450E-3	20.012167635E-3	5.376075023E-3	1.056299367E+6	856.115434692E+3	28.820421688E+3	7.742327169E+3	3.999000000E+0
1.843056050E+3	50.000000000E+0	125.496866140E-12	1.000000000E+0	734.432302055E-9	3.701758891E-9	1.361595885E+6	6.862851290E+3	721.064891551E-3	589.600532990E-3	19.162229088E-3	4.878887477E-3	981.798988870E+3	802.797659281E+3	26.091212267E+3	6.643073110E+3	3.998400000E+0
1.908336980E+3	55.000000000E+0	134.205996085E-12	1.000000000E+0	757.917360687E-9	3.713289199E-9	1.319405059E+6	6.464204159E+3	704.947711933E-3	580.459441202E-3	18.573577039E-3	3.772603616E-3	930.111577460E+3	765.861123271E+3	24.506071509E+3	4.977592297E+3	4.000100000E+0
1.972206218E+3	60.000000000E+0	149.648138788E-12	1.000000000E+0	773.575102595E-9	3.675151993E-9	1.292699308E+6	6.141441760E+3	699.400618412E-3	571.898856233E-3	17.761895238E-3	3.418311451E-3	904.114695607E+3	739.293255838E+3	22.960789688E+3	4.418848848E+3	4.001300000E+0
2.035879854E+3	65.000000000E+0	159.200334397E-12	1.000000000E+0	791.376187433E-9	3.154440723E-9	1.263621544E+6	5.036819810E+3	696.136853690E-3	571.105825213E-3	18.325314676E-3	3.261821448E-3	879.653526028E+3	721.661624752E+3	23.156262429E+3	4.121707856E+3	4.001600000E+0
2.099532398E+3	70.000000000E+0	163.854926155E-12	1.000000000E+0	806.757148350E-9	3.144621005E-9	1.239530387E+6	4.831507596E+3	698.171444202E-3	564.431422243E-3	17.304833484E-3	3.167248673E-3	865.404720157E+3	699.629899032E+3	21.449866938E+3	3.925900972E+3	3.998300000E+0
2.163442106E+3	75.000000000E+0	179.330442163E-12	1.000000000E+0	821.493902492E-9	2.742860956E-9	1.217294489E+6	4.064387472E+3	684.109831659E-3	555.911175886E-3	17.172430773E-3	2.430287184E-3	832.763127740E+3	676.707610610E+3	20.903905337E+3	2.958375195E+3	3.999500000E+0
