[Main]
Experiment = "IvsV_300.0K"
Header length = 48    
Date = "20191121 17:14:54"
Comments = "SD: 1I+ to 1V-; Volt1: 1I+ to 1Va; Volt2: 1Va to 1V-; Gate: 2Va to 1V-; "

[System]
System = "PPMS"
Magnet stability range (G) = 5.000000E+1
Magnet check interval (s) = 1.000000E+0
Magnet approach mode = "Linear Approach"
Magnet mode = "Persistent"
Temperature stability time (s) = 1.000000E+0
Temperature approach mode = "Fast Settle"

[Static Temperature]
Set initial temperature = TRUE
Initial temperature (K) = 3.000000E+2
Delay after setting initial temperature (s) = 1.000000E+1
Initial temperature stabilization (K) = 2.000000E-1
Initial temperature ramp rate (K/min) = 1.000000E+1
Wait for initial temperature to stabilize = TRUE
Set final temperature = FALSE

[Measure Voltage Configuration1]
Voltage meter = "Keithley 2182A"
Auto-range = "Manual"
GPIB = "GPIB0::8::INSTR"
Range (V) = 1.000000E+0
Speed = 1.000000

[Dynamic Voltage]
Voltage source = "Keithley 6430"
GPIB = "GPIB0::9::INSTR"
Initial Voltage (V) = -1.000000E+0
Final Voltage (V) = 1.000000E+0
Voltage step (V) = 100.000000E-3
Number of measurement sequences = 1.000000E+0
Samples/sequence = 30.000000E+0
Pre-measuement delay (s) = 1.000000E+0
Current limit (A) = 100.000000E-6
Auto-range = 0
Manual range (V) = 10.000000E+0
Measurement Type = "Static"
Pattern = "Linear"
Check compliance = 0
Measurement Speed = 1.000000
Time (s)	Voltage 1 (V)	Current (A)	STD_Current (A)	Resistance 1 (Ohms)	STD_Resistance 1 (Ohms)	Voltage 2 (V)	STD_Voltage 2 (V)	Resistance 2 (Ohms)	STD_Resistance 2 (Ohms)	Temperature (K)
0.000000000E+0	-1.000000000E+0	-60.527090667E-9	244.821660284E-12	16.521527617E+6	66.826734558E+3	-2.671127788E-3	132.746919705E-6	44.131111511E+3	2.193181900E+3	300.010200000E+0
4.788691998E+0	-899.999976158E-3	-51.921702667E-9	524.091464826E-12	17.333791650E+6	174.965222450E+3	-2.788969025E-3	4.581060204E-3	53.714899206E+3	88.230161346E+3	300.005700000E+0
9.522844791E+0	-800.000011921E-3	-43.524368000E-9	2.161823891E-9	18.380508407E+6	912.946563624E+3	-1.998588761E-3	115.830543632E-6	45.918846212E+3	2.661280312E+3	300.001000000E+0
16.421167374E+0	-699.999988079E-3	-39.285162333E-9	267.682619890E-12	17.818431858E+6	121.411857273E+3	-1.910777925E-3	100.712375991E-6	48.638666904E+3	2.563623771E+3	299.996600000E+0
21.137618542E+0	-600.000023842E-3	-33.106088333E-9	307.762337158E-12	18.123555335E+6	168.481026554E+3	-1.777004266E-3	137.804590648E-6	53.676056433E+3	4.162515041E+3	299.996200000E+0
25.903121471E+0	-500.000000000E-3	-27.316568667E-9	175.419017208E-12	18.303909473E+6	117.542354974E+3	-1.628231899E-3	112.946551602E-6	59.606018574E+3	4.134726912E+3	299.993300000E+0
30.609035969E+0	-400.000005960E-3	-21.347886667E-9	208.261166548E-12	18.737217984E+6	182.792560971E+3	-1.488995207E-3	133.216817885E-6	69.749068370E+3	6.240281296E+3	299.998700000E+0
35.336025715E+0	-300.000011921E-3	-15.860185333E-9	136.892698068E-12	18.915290434E+6	163.261972535E+3	-1.281703125E-3	108.361459131E-6	80.812619676E+3	6.832294633E+3	299.999100000E+0
40.025270462E+0	-200.000002980E-3	-10.530849333E-9	59.448618785E-12	18.991820759E+6	107.212388726E+3	-1.139922996E-3	112.779304751E-6	108.246064515E+3	10.709421546E+3	299.998400000E+0
44.745574474E+0	-100.000001490E-3	-5.266585700E-9	33.373100455E-12	18.987633960E+6	120.320118508E+3	-973.854259300E-6	109.031122638E-6	184.911879304E+3	20.702430160E+3	300.000000000E+0
49.552320957E+0	-138.777878078E-18	287.775798153E-12	681.043754416E-12	-482.243048125E-9	1.141265590E-6	-826.541015400E-6	130.214218287E-6	-2.872170004E+6	452.484952253E+3	300.001600000E+0
63.613713741E+0	100.000001490E-3	5.205145433E-9	39.594093358E-12	19.211759358E+6	146.138509164E+3	-653.324071700E-6	112.134135797E-6	-125.515046614E+3	21.542940007E+3	299.997700000E+0
68.605669498E+0	200.000002980E-3	10.659943000E-9	44.550441164E-12	18.761826680E+6	78.410143058E+3	-468.996807833E-6	139.194083111E-6	-43.996183454E+3	13.057676116E+3	299.998600000E+0
73.450429440E+0	300.000011921E-3	16.212792667E-9	107.508667684E-12	18.503907259E+6	122.701280236E+3	-286.047817967E-6	122.075657109E-6	-17.643340284E+3	7.529588493E+3	299.999900000E+0
78.132942677E+0	400.000005960E-3	22.150659000E-9	156.031931002E-12	18.058153753E+6	127.203827230E+3	-57.515631689E-6	136.234247926E-6	-2.596565262E+3	6.150347397E+3	300.002100000E+0
82.823692799E+0	500.000000000E-3	27.858089667E-9	151.084871341E-12	17.948107928E+6	97.339322600E+3	185.648412833E-6	124.511625362E-6	6.664075500E+3	4.469496181E+3	300.002400000E+0
87.503728867E+0	600.000023842E-3	34.961396333E-9	177.649507380E-12	17.161786621E+6	87.204266955E+3	412.024273167E-6	130.657166414E-6	11.785120630E+3	3.737183869E+3	300.000800000E+0
92.202603340E+0	699.999988079E-3	40.986047333E-9	274.789175876E-12	17.078982571E+6	114.505297558E+3	713.330776383E-6	145.887405294E-6	17.404234436E+3	3.559440707E+3	300.002100000E+0
96.926651478E+0	800.000011921E-3	46.799970000E-9	278.297831233E-12	17.094028306E+6	101.650300304E+3	915.779464067E-6	131.872782398E-6	19.567949810E+3	2.817796302E+3	299.997700000E+0
101.612524033E+0	899.999976158E-3	52.869499000E-9	248.998569063E-12	17.023047186E+6	80.173152205E+3	1.165455554E-3	108.728772339E-6	22.044006024E+3	2.056550079E+3	300.000800000E+0
106.320857048E+0	1.000000000E+0	60.576567000E-9	222.957046600E-12	16.508033544E+6	60.759177787E+3	1.475971978E-3	96.007685331E-6	24.365394922E+3	1.584898090E+3	300.000200000E+0
